# histogram for class 1
#  domain: 3.857307  5.536504
#  entropy: 7.21297
#  bin centers     counts
  3.857307       1.000000
  3.865745       0.087521
  3.874183       1.414279
  3.882621       1.780641
  3.891060       4.048517
  3.899498       5.541171
  3.907936       15.659307
  3.916374       28.479136
  3.924812       45.689176
  3.933251       68.183160
  3.941689       141.986383
  3.950127       172.886468
  3.958565       135.368686
  3.967003       193.743067
  3.975441       142.122848
  3.983880       182.510643
  3.992318       179.494901
  4.000756       166.621632
  4.009194       190.539312
  4.017632       183.915735
  4.026071       209.833979
  4.034509       169.825849
  4.042947       181.253150
  4.051385       182.045797
  4.059823       208.481095
  4.068261       181.494089
  4.076700       214.202754
  4.085138       196.769366
  4.093576       237.858479
  4.102014       217.670086
  4.110452       248.010172
  4.118890       215.080484
  4.127329       236.867175
  4.135767       234.009828
  4.144205       247.946783
  4.152643       246.747941
  4.161081       289.500790
  4.169520       249.342049
  4.177958       285.054837
  4.186396       259.790082
  4.194834       283.266449
  4.203272       291.742769
  4.211710       270.729103
  4.220149       305.482652
  4.228587       297.183424
  4.237025       309.849891
  4.245463       280.350412
  4.253901       308.653869
  4.262339       321.342456
  4.270778       331.362208
  4.279216       327.385514
  4.287654       333.563255
  4.296092       350.141850
  4.304530       375.519149
  4.312969       348.219637
  4.321407       345.431468
  4.329845       351.087007
  4.338283       389.639333
  4.346721       374.505459
  4.355159       388.559630
  4.363598       404.851921
  4.372036       422.028433
  4.380474       417.525552
  4.388912       410.373742
  4.397350       450.384118
  4.405788       416.493210
  4.414227       411.061231
  4.422665       439.248206
  4.431103       417.716913
  4.439541       405.230196
  4.447979       412.422106
  4.456418       395.420255
  4.464856       428.755669
  4.473294       430.222375
  4.481732       415.689949
  4.490170       427.540022
  4.498608       449.737731
  4.507047       473.362430
  4.515485       466.355259
  4.523923       443.743664
  4.532361       450.670938
  4.540799       431.697687
  4.549238       442.719911
  4.557676       411.681366
  4.566114       422.654818
  4.574552       429.688904
  4.582990       428.167362
  4.591428       394.549410
  4.599867       412.290409
  4.608305       421.573928
  4.616743       418.062826
  4.625181       436.670759
  4.633619       414.951975
  4.642057       442.440299
  4.650496       407.953129
  4.658934       425.651819
  4.667372       385.051385
  4.675810       393.470044
  4.684248       384.014061
  4.692687       395.804821
  4.701125       414.848085
  4.709563       411.478200
  4.718001       413.506350
  4.726439       362.598016
  4.734877       389.750641
  4.743316       388.612789
  4.751754       356.310689
  4.760192       361.862007
  4.768630       309.866694
  4.777068       277.905418
  4.785506       257.949208
  4.793945       234.727370
  4.802383       222.391421
  4.810821       169.418802
  4.819259       146.771240
  4.827697       134.951224
  4.836136       144.463542
  4.844574       141.710880
  4.853012       142.052824
  4.861450       119.344444
  4.869888       113.324797
  4.878326       115.998749
  4.886765       120.252466
  4.895203       106.579516
  4.903641       99.097509
  4.912079       95.188932
  4.920517       112.397445
  4.928955       106.170765
  4.937394       103.499326
  4.945832       97.220240
  4.954270       93.075647
  4.962708       111.110105
  4.971146       93.256808
  4.979585       104.884192
  4.988023       106.342465
  4.996461       107.699067
  5.004899       115.482737
  5.013337       109.969225
  5.021775       94.739227
  5.030214       101.457469
  5.038652       85.144954
  5.047090       100.525787
  5.055528       107.600735
  5.063966       108.630163
  5.072405       108.779174
  5.080843       99.992016
  5.089281       106.445221
  5.097719       103.480217
  5.106157       103.901179
  5.114595       94.740736
  5.123034       86.066271
  5.131472       91.583308
  5.139910       93.183713
  5.148348       97.422988
  5.156786       91.840723
  5.165224       94.269609
  5.173663       86.773383
  5.182101       89.284891
  5.190539       90.175519
  5.198977       90.606532
  5.207415       102.248329
  5.215854       85.800800
  5.224292       92.259461
  5.232730       102.869495
  5.241168       87.427504
  5.249606       70.007331
  5.258044       68.661326
  5.266483       79.828295
  5.274921       77.378163
  5.283359       64.175672
  5.291797       74.679890
  5.300235       61.671915
  5.308673       50.872990
  5.317112       47.053907
  5.325550       54.938425
  5.333988       41.639144
  5.342426       43.277188
  5.350864       46.572864
  5.359303       38.740907
  5.367741       46.640011
  5.376179       33.845343
  5.384617       29.517429
  5.393055       25.987764
  5.401493       28.165057
  5.409932       22.887133
  5.418370       18.624639
  5.426808       18.413681
  5.435246       16.164833
  5.443684       17.665054
  5.452122       17.598335
  5.460561       22.740385
  5.468999       22.847819
  5.477437       17.813989
  5.485875       13.108476
  5.494313       5.014309
  5.502752       3.125814
  5.511190       2.034252
  5.519628       1.144664
  5.528066       1.984758
  5.536504       1.057252
